File: Fig.2-XPS/Fig2 XPS LP graphene.csv
_;;;;;;;;;;;
Axis;Energy;Elements=;191;;;;;;;;
Axis;Position;Elements=;1;;;;;;;;
Axis;X;Elements=;1;;;;;;;;
Axis;Y;Elements=;1;;;;;;;;
;;;;;;;;;;;
C:\Mac\Home\Documents\Avantage\Old graphene\G-Si111-front side\Data Grid 3.DATA\C1s Scan.VGD;;;;;;;;;;;
;;;;;;;;;;;
;;;;;;;;;;;
;Position (Pos)\;Pt #002;;;;;;;;;
;X (X)\µm;52578.6;;;;;;;;;
;Y (Y)\µm;21352.2;;;;;;;;;
Binding Energy (E);;;;Fitted envelope;Fitted Peak sp2;Fitted Peak sp3;Fitted Peak C-O;Fitted Peak C=O;Fitted Peak SiC;Fitted Peak pi-pi;Backgnd.
eV;;Counts / s;;Counts / s;Counts / s;Counts / s;Counts / s;Counts / s;Counts / s;Counts / s;Counts / s
298.080;;2550.09;;2572.33;0.00000;0.00000;0.00000;0.00000;0.00000;0.00000;0.00000
297.880;;2628.75;;2625.62;2590.74;2590.74;2590.74;2590.74;2590.74;2625.62;2590.74
297.680;;2582.31;;2630.89;2590.40;2590.40;2590.40;2590.40;2590.40;2630.89;2590.40
297.480;;2701.69;;2633.85;2589.86;2589.86;2589.86;2589.86;2589.86;2633.85;2589.86
297.280;;2606.61;;2636.96;2589.32;2589.32;2589.32;2589.32;2589.32;2636.96;2589.32
297.080;;2532.94;;2640.55;2588.82;2588.82;2588.82;2588.83;2588.82;2640.54;2588.82
296.880;;2721.52;;2644.53;2588.21;2588.21;2588.21;2588.21;2588.21;2644.53;2588.21
296.680;;2683.84;;2648.92;2587.39;2587.39;2587.39;2587.40;2587.39;2648.91;2587.39
296.480;;2669.33;;2653.95;2586.51;2586.51;2586.51;2586.53;2586.51;2653.93;2586.51
296.280;;2656.57;;2659.74;2585.56;2585.56;2585.56;2585.60;2585.56;2659.70;2585.56
296.080;;2693.77;;2666.41;2584.53;2584.53;2584.53;2584.59;2584.53;2666.35;2584.53
295.880;;2798.32;;2674.07;2583.35;2583.35;2583.35;2583.44;2583.35;2673.98;2583.35
295.680;;2754.36;;2683.01;2582.09;2582.09;2582.09;2582.24;2582.09;2682.86;2582.09
295.480;;2736.50;;2693.53;2580.84;2580.84;2580.84;2581.07;2580.84;2693.30;2580.84
295.280;;2643.45;;2706.11;2579.81;2579.81;2579.81;2580.16;2579.81;2705.76;2579.81
295.080;;2712.70;;2720.94;2578.87;2578.87;2578.87;2579.40;2578.87;2720.42;2578.87
294.880;;2763.12;;2738.13;2577.83;2577.83;2577.83;2578.61;2577.83;2737.35;2577.83
294.680;;2627.33;;2757.95;2576.68;2576.68;2576.69;2577.82;2576.68;2756.80;2576.68
294.480;;2691.66;;2780.70;2575.53;2575.53;2575.54;2577.18;2575.53;2779.05;2575.53
294.280;;2774.92;;2806.27;2574.25;2574.25;2574.26;2576.59;2574.25;2803.92;2574.25
294.080;;2737.15;;2834.39;2572.86;2572.86;2572.90;2576.17;2572.86;2831.05;2572.86
293.880;;2845.39;;2864.04;2571.20;2571.20;2571.27;2575.83;2571.20;2859.34;2571.20
293.680;;2903.00;;2893.60;2569.14;2569.14;2569.28;2575.55;2569.14;2887.04;2569.14
293.480;;2967.98;;2920.93;2566.68;2566.68;2566.97;2575.52;2566.68;2911.81;2566.68
293.280;;3035.63;;2943.55;2563.97;2563.97;2564.51;2576.05;2563.97;2930.91;2563.97
293.080;;2960.84;;2959.14;2561.18;2561.18;2562.15;2577.62;2561.18;2941.73;2561.18
292.880;;2953.88;;2966.33;2558.51;2558.51;2560.16;2580.75;2558.51;2942.44;2558.51
292.680;;2972.14;;2965.09;2555.93;2555.93;2558.60;2585.85;2555.93;2932.50;2555.93
292.480;;2885.40;;2957.13;2553.39;2553.39;2557.52;2593.40;2553.39;2912.99;2553.39
292.280;;2922.13;;2945.56;2550.86;2550.86;2556.96;2604.05;2550.86;2886.27;2550.86
292.080;;2863.87;;2934.14;2548.38;2548.38;2557.03;2618.58;2548.38;2855.29;2548.38
291.880;;2849.30;;2926.50;2545.97;2545.97;2557.75;2637.89;2545.97;2822.81;2545.97
291.680;;2878.24;;2925.57;2543.61;2543.61;2559.04;2662.87;2543.61;2790.88;2543.61
291.480;;3083.12;;2933.14;2540.86;2540.86;2560.40;2694.03;2540.86;2760.43;2540.86
291.280;;2962.74;;2950.87;2537.91;2537.91;2561.91;2732.45;2537.91;2732.34;2537.91
291.080;;3054.29;;2979.69;2534.86;2534.86;2563.55;2778.91;2534.86;2706.94;2534.86
290.880;;3009.32;;3020.10;2531.90;2531.90;2565.44;2834.07;2531.90;2684.39;2531.90
290.680;;3133.33;;3071.61;2528.75;2528.75;2567.25;2897.66;2528.75;2664.20;2528.75
290.480;;3118.98;;3133.29;2525.22;2525.22;2568.83;2969.00;2525.22;2645.89;2525.22
290.280;;3198.97;;3203.86;2521.33;2521.33;2570.29;3047.02;2521.33;2629.21;2521.33
290.080;;3203.38;;3281.59;2517.24;2517.24;2571.94;3130.09;2517.24;2614.04;2517.24
289.880;;3353.24;;3363.58;2512.56;2512.56;2573.59;3215.36;2512.56;2599.75;2512.56
289.680;;3421.75;;3446.86;2507.30;2507.30;2575.52;3299.81;2507.30;2586.12;2507.30
289.480;;3619.09;;3528.06;2501.41;2501.41;2578.04;3379.92;2501.41;2572.93;2501.41
289.280;;3558.74;;3603.94;2495.10;2495.11;2581.78;3452.13;2495.10;2560.22;2495.10
289.080;;3685.87;;3671.22;2488.30;2488.33;2587.28;3512.70;2488.30;2547.79;2488.30
288.880;;3752.59;;3727.49;2481.13;2481.29;2595.57;3558.35;2481.13;2535.66;2481.13
288.680;;3840.39;;3771.26;2473.48;2474.08;2607.79;3586.21;2473.48;2523.62;2473.48
288.480;;3721.93;;3803.27;2465.70;2467.57;2626.19;3594.68;2465.70;2511.93;2465.70
288.280;;3765.79;;3826.36;2457.85;2462.81;2653.55;3582.94;2457.85;2500.59;2457.85
288.080;;3822.29;;3845.85;2449.84;2461.12;2693.66;3551.12;2449.84;2489.46;2449.84
287.880;;3848.81;;3869.64;2441.74;2463.91;2751.78;3500.60;2441.74;2478.56;2441.74
287.680;;3870.91;;3907.19;2433.61;2471.86;2834.55;3433.69;2433.61;2467.91;2433.61
287.480;;3958.17;;3968.38;2425.18;2484.25;2949.26;3353.19;2425.20;2457.20;2425.18
287.280;;4135.26;;4063.18;2415.95;2499.69;3103.03;3262.12;2416.23;2445.91;2415.95
287.080;;4211.19;;4202.57;2405.93;2518.20;3301.89;3164.25;2407.95;2434.01;2405.93
286.880;;4511.25;;4396.81;2395.06;2542.18;3547.90;3063.17;2402.36;2421.43;2395.06
286.680;;4672.33;;4650.22;2383.13;2578.13;3836.61;2962.04;2398.01;2407.94;2383.13
286.480;;5002.95;;4962.87;2369.58;2639.86;4154.79;2863.10;2390.48;2392.96;2369.58
286.280;;5265.44;;5344.32;2354.21;2756.66;4480.51;2768.34;2379.36;2376.28;2354.21
286.080;;5843.37;;5824.17;2336.54;2984.06;4783.99;2678.81;2366.02;2357.39;2336.53
285.880;;6481.26;;6459.64;2316.06;3410.32;5031.55;2594.72;2350.81;2335.64;2315.89
285.680;;7347.14;;7321.27;2293.18;4134.69;5190.88;2515.16;2333.10;2309.84;2291.12
285.480;;8371.29;;8438.57;2279.69;5196.16;5237.76;2438.72;2312.47;2278.78;2261.00
285.280;;9698.63;;9750.23;2346.70;6470.42;5160.93;2363.63;2288.93;2241.21;2224.32
285.080;;10969.0;;11198.2;2760.03;7626.21;4964.94;2288.40;2264.00;2196.45;2180.37
284.880;;12997.5;;12973.6;4112.61;8237.47;4667.37;2210.36;2240.09;2142.71;2127.40
284.680;;15417.6;;15413.8;6978.59;8027.70;4295.00;2126.14;2223.67;2077.58;2062.97
284.480;;17950.3;;18061.5;10784.9;7057.17;3879.07;2032.97;2234.46;1999.20;1985.25
284.280;;19034.1;;19113.4;13285.1;5683.30;3453.36;1932.82;2333.61;1910.34;1897.01
284.080;;17340.4;;17128.3;12461.8;4330.97;3051.45;1834.14;2666.89;1820.18;1807.42
283.880;;13013.1;;13134.9;8935.91;3276.13;2702.17;1749.58;3377.97;1741.97;1729.76
283.680;;9369.13;;9362.49;5194.97;2582.47;2419.66;1686.02;4153.27;1683.11;1671.40
283.480;;6659.96;;6575.00;2877.41;2177.21;2202.99;1642.51;4190.81;1643.01;1631.79
283.280;;4537.95;;4516.57;1924.87;1954.17;2042.68;1614.32;3395.73;1617.27;1606.50
283.080;;3191.95;;3197.11;1650.34;1831.34;1927.39;1597.16;2546.50;1601.85;1591.49
282.880;;2537.98;;2524.57;1590.73;1759.22;1845.47;1586.93;2063.71;1592.82;1582.86
282.680;;2179.61;;2203.35;1578.52;1711.85;1787.13;1580.66;1846.64;1587.33;1577.75
282.480;;2031.42;;2028.89;1574.53;1676.39;1745.02;1576.53;1745.11;1583.70;1574.48
282.280;;1942.99;;1917.47;1572.07;1646.91;1713.90;1573.49;1690.47;1580.95;1572.06
282.080;;1859.11;;1838.59;1570.19;1621.61;1690.39;1571.17;1657.42;1578.76;1570.19
281.880;;1807.44;;1780.30;1568.68;1600.82;1672.19;1569.36;1635.72;1576.95;1568.68
281.680;;1692.45;;1737.28;1567.52;1585.37;1657.83;1567.97;1620.70;1575.51;1567.52
281.480;;1663.72;;1706.13;1566.61;1575.26;1646.23;1566.91;1609.85;1574.32;1566.61
281.280;;1684.44;;1683.68;1565.81;1569.42;1636.56;1566.01;1601.67;1573.26;1565.81
281.080;;1694.99;;1667.14;1565.08;1566.37;1628.29;1565.20;1595.31;1572.29;1565.08
280.880;;1660.99;;1654.26;1564.42;1564.81;1621.05;1564.50;1590.19;1571.40;1564.42
280.680;;1652.29;;1643.11;1563.87;1563.97;1614.61;1563.92;1585.48;1570.63;1563.87
280.480;;1637.36;;1631.23;1563.41;1563.43;1608.68;1563.44;1579.36;1569.95;1563.41
280.280;;1605.57;;1617.92;1563.05;1563.06;1603.16;1563.07;1571.45;1569.39;1563.05
280.080;;1580.89;;1606.65;1562.84;1562.84;1597.94;1562.85;1565.40;1568.98;1562.84
279.880;;1560.06;;1599.36;1562.78;1562.78;1593.00;1562.79;1563.17;1568.74;1562.78
279.680;;1650.46;;1593.94;1562.65;1562.65;1588.12;1562.66;1562.68;1568.44;1562.65
279.480;;1620.85;;1588.93;1562.42;1562.42;1583.35;1562.42;1562.42;1568.00;1562.42
279.280;;1532.85;;1583.98;1562.29;1562.29;1578.98;1562.29;1562.29;1567.28;1562.29
279.080;;1612.46;;1628.61;0.00000;0.00000;0.00000;0.00000;0.00000;0.00000;0.00000