File: Fig.2-XPS/Fig2 XPS AP graphene.csv
_;;;;;;;;;
Axis;Energy;Elements=;191;;;;;;
Axis;Position;Elements=;1;;;;;;
Axis;X;Elements=;1;;;;;;
Axis;Y;Elements=;1;;;;;;
;;;;;;;;;
C:\Mac\Home\Documents\Avantage\GonSi111-anneal in UHV\Data Grid.DATA\C1s Scan.VGD;;;;;;;;;
;;;;;;;;;
;;;;;;;;;
;Position (Pos)\;Pt #003;;;;;;;
;X (X)\µm;46616.6;;;;;;;
;Y (Y)\µm;27642.1;;;;;;;
Binding Energy (E);;;;Fitted envelope;Fitted Peak C sp2;Fitted Peak CO;Fitted Peak C sp3;Fitted Peak SiC;Backgnd.
eV;;Counts / s;;Counts / s;Counts / s;Counts / s;Counts / s;Counts / s;Counts / s
298.080;;2198.08;;2198.08;0.00000;0.00000;0.00000;0.00000;0.00000
297.880;;2221.82;;2221.82;0.00000;0.00000;0.00000;0.00000;0.00000
297.680;;2217.05;;2217.05;0.00000;0.00000;0.00000;0.00000;0.00000
297.480;;2261.54;;2261.54;0.00000;0.00000;0.00000;0.00000;0.00000
297.280;;2294.19;;2294.19;0.00000;0.00000;0.00000;0.00000;0.00000
297.080;;2288.35;;2288.35;0.00000;0.00000;0.00000;0.00000;0.00000
296.880;;2151.99;;2151.99;0.00000;0.00000;0.00000;0.00000;0.00000
296.680;;2208.19;;2208.19;0.00000;0.00000;0.00000;0.00000;0.00000
296.480;;2221.88;;2221.89;0.00000;0.00000;0.00000;0.00000;0.00000
296.280;;2244.03;;2244.04;0.00000;0.00000;0.00000;0.00000;0.00000
296.080;;2265.91;;2265.92;0.00000;0.00000;0.00000;0.00000;0.00000
295.880;;2246.35;;2246.37;0.00000;0.00000;0.00000;0.00000;0.00000
295.680;;2276.82;;2276.85;0.00000;0.00000;0.00000;0.00000;0.00000
295.480;;2199.26;;2199.30;0.00000;0.00000;0.00000;0.00000;0.00000
295.280;;2406.21;;2406.29;0.00000;0.00000;0.00000;0.00000;0.00000
295.080;;2292.03;;2292.16;0.00000;0.00000;0.00000;0.00000;0.00000
294.880;;2237.43;;2237.64;0.00000;0.00000;0.00000;0.00000;0.00000
294.680;;2304.89;;2305.21;0.00000;0.00000;0.00000;0.00000;0.00000
294.480;;2267.32;;2267.80;0.00000;0.00000;0.00000;0.00000;0.00000
294.280;;2323.62;;2324.30;0.00000;0.00000;0.00000;0.00000;0.00000
294.080;;2362.19;;2363.14;0.00000;0.00000;0.00000;0.00000;0.00000
293.880;;2271.39;;2272.65;0.00000;0.00000;0.00000;0.00000;0.00000
293.680;;2244.25;;2245.90;0.00000;0.00000;0.00000;0.00000;0.00000
293.480;;2198.71;;2200.80;0.00000;0.00000;0.00000;0.00000;0.00000
293.280;;2314.07;;2316.63;0.00000;0.00000;0.00000;0.00000;0.00000
293.080;;2273.76;;2276.84;0.00000;0.00000;0.00000;0.00000;0.00000
292.880;;2328.66;;2332.28;0.00000;0.00000;0.00000;0.00000;0.00000
292.680;;2303.72;;2307.89;0.00000;0.00000;0.00000;0.00000;0.00000
292.480;;2389.69;;2394.41;0.00000;0.00000;0.00000;0.00000;0.00000
292.280;;2250.29;;2255.57;0.00000;0.00000;0.00000;0.00000;0.00000
292.080;;2320.40;;2326.25;0.00000;0.00000;0.00000;0.00000;0.00000
291.880;;2419.52;;2425.93;0.00000;0.00000;0.00000;0.00000;0.00000
291.680;;2397.63;;2404.63;0.00000;0.00000;0.00000;0.00000;0.00000
291.480;;2366.65;;2374.25;0.00000;0.00000;0.00000;0.00000;0.00000
291.280;;2302.42;;2355.51;2347.24;2355.51;2347.24;2347.24;2347.24
291.080;;2428.37;;2356.11;2347.12;2356.11;2347.12;2347.12;2347.12
290.880;;2406.08;;2356.67;2346.89;2356.67;2346.89;2346.89;2346.89
290.680;;2376.14;;2357.28;2346.59;2357.28;2346.59;2346.59;2346.59
290.480;;2392.21;;2358.09;2346.37;2358.09;2346.37;2346.37;2346.37
290.280;;2333.04;;2359.15;2346.24;2359.15;2346.24;2346.24;2346.24
290.080;;2422.54;;2360.40;2346.08;2360.40;2346.08;2346.08;2346.08
289.880;;2349.37;;2361.88;2345.89;2361.88;2345.89;2345.89;2345.89
289.680;;2402.59;;2363.63;2345.63;2363.63;2345.63;2345.63;2345.63
289.480;;2329.12;;2365.90;2345.43;2365.90;2345.43;2345.43;2345.43
289.280;;2348.83;;2368.82;2345.28;2368.82;2345.28;2345.28;2345.28
289.080;;2348.87;;2372.61;2345.18;2372.61;2345.18;2345.18;2345.18
288.880;;2391.34;;2377.55;2345.13;2377.54;2345.13;2345.13;2345.13
288.680;;2390.98;;2383.89;2345.00;2383.89;2345.00;2345.00;2345.00
288.480;;2468.03;;2392.00;2344.64;2391.99;2344.65;2344.64;2344.64
288.280;;2445.68;;2402.58;2344.14;2402.54;2344.18;2344.14;2344.14
288.080;;2396.41;;2416.60;2343.66;2416.40;2343.86;2343.66;2343.66
287.880;;2347.63;;2435.16;2343.33;2434.46;2344.04;2343.33;2343.33
287.680;;2417.29;;2459.26;2342.98;2457.25;2345.00;2342.98;2342.98
287.480;;2556.92;;2489.64;2342.44;2485.10;2346.98;2342.44;2342.44
287.280;;2484.96;;2526.56;2341.71;2518.18;2350.09;2341.71;2341.71
287.080;;2546.14;;2569.38;2340.79;2556.12;2354.04;2340.79;2340.79
286.880;;2581.39;;2616.91;2339.77;2597.93;2358.75;2339.77;2339.77
286.680;;2597.02;;2668.01;2338.63;2641.75;2364.86;2338.65;2338.63
286.480;;2726.32;;2722.47;2337.25;2684.92;2374.55;2337.51;2337.25
286.280;;2817.60;;2783.49;2335.61;2724.34;2393.48;2336.90;2335.61
286.080;;2892.21;;2861.84;2333.60;2756.67;2435.34;2337.03;2333.60
285.880;;2939.73;;2981.05;2331.23;2778.89;2527.60;2336.93;2331.20
285.680;;3262.39;;3173.48;2328.68;2788.41;2705.09;2335.60;2328.10
285.480;;3458.35;;3450.53;2332.43;2783.93;2973.36;2333.45;2324.21
285.280;;3774.10;;3789.12;2394.37;2765.27;3256.60;2330.77;2319.30
285.080;;4374.50;;4285.59;2753.98;2732.96;3409.16;2327.21;2312.58
284.880;;5294.56;;5404.20;3972.53;2688.02;3329.68;2322.05;2302.70
284.680;;7420.32;;7496.13;6351.73;2631.01;3060.88;2314.08;2287.19
284.480;;9338.89;;9449.85;8630.23;2563.61;2744.77;2304.69;2264.48
284.280;;9423.51;;9232.83;8652.04;2491.44;2496.08;2304.81;2237.18
284.080;;6951.53;;6850.26;6371.71;2424.08;2344.94;2346.61;2212.36
283.880;;4358.22;;4468.28;3930.90;2368.92;2267.57;2487.82;2195.64
283.680;;3437.50;;3382.26;2652.30;2326.43;2230.60;2732.42;2186.50
283.480;;3077.86;;3107.40;2261.84;2293.40;2211.51;2884.81;2181.39
283.280;;2932.94;;2875.02;2186.77;2267.15;2199.53;2755.05;2177.83
283.080;;2560.52;;2583.56;2175.97;2246.66;2190.83;2496.10;2175.33
282.880;;2376.62;;2389.37;2173.80;2231.07;2184.06;2321.75;2173.77
282.680;;2288.11;;2298.44;2172.89;2219.40;2178.86;2245.96;2172.89
282.480;;2277.73;;2256.09;2172.33;2210.58;2175.22;2214.95;2172.33
282.280;;2273.23;;2233.12;2171.91;2203.83;2173.04;2200.08;2171.91
282.080;;2191.87;;2219.13;2171.64;2198.68;2171.98;2191.75;2171.64
281.880;;2234.43;;2209.94;2171.49;2194.73;2171.57;2186.62;2171.49
281.680;;2124.59;;2203.46;2171.41;2191.63;2171.42;2183.22;2171.41
281.480;;2187.66;;2198.61;2171.32;2189.13;2171.32;2180.80;2171.32
281.280;;2180.92;;2194.82;2171.28;2187.11;2171.28;2178.99;2171.28
281.080;;2178.35;;2198.51;0.00000;0.00000;0.00000;0.00000;0.00000
280.880;;2187.16;;2203.70;0.00000;0.00000;0.00000;0.00000;0.00000
280.680;;2097.17;;2110.30;0.00000;0.00000;0.00000;0.00000;0.00000
280.480;;2153.73;;2164.66;0.00000;0.00000;0.00000;0.00000;0.00000
280.280;;2124.40;;2134.14;0.00000;0.00000;0.00000;0.00000;0.00000
280.080;;2134.45;;2143.37;0.00000;0.00000;0.00000;0.00000;0.00000
279.880;;2107.14;;2115.35;0.00000;0.00000;0.00000;0.00000;0.00000
279.680;;2058.52;;2066.07;0.00000;0.00000;0.00000;0.00000;0.00000
279.480;;2110.36;;2117.30;0.00000;0.00000;0.00000;0.00000;0.00000
279.280;;2163.76;;2170.12;0.00000;0.00000;0.00000;0.00000;0.00000
279.080;;2187.25;;2193.05;0.00000;0.00000;0.00000;0.00000;0.00000